# GMOS-N "ri" filter transmission curve from the manufacturer, Asahi Spectra.
# The transmission is the average of measurements at 5 locations on the filter.
# 2018-Nov-8

# Effective wavelength (nm):
700.0

# Wavelength (nm) Transmission
300.0	0.0000035
300.5	0.0000036
301.0	0.0000042
301.5	0.0000070
302.0	0.0000027
302.5	0.0000085
303.0	0.0000095
303.5	0.0000080
304.0	0.0000094
304.5	0.0000071
305.0	0.0000054
305.5	0.0000111
306.0	0.0000047
306.5	0.0000008
307.0	0.0000058
307.5	0.0000060
308.0	0.0000075
308.5	0.0000047
309.0	0.0000063
309.5	0.0000068
310.0	0.0000014
310.5	0.0000043
311.0	0.0000048
311.5	0.0000076
312.0	0.0000052
312.5	0.0000095
313.0	0.0000042
313.5	0.0000012
314.0	0.0000044
314.5	0.0000080
315.0	0.0000030
315.5	0.0000107
316.0	0.0000108
316.5	0.0000079
317.0	0.0000103
317.5	0.0000018
318.0	-0.0000019
318.5	0.0000060
319.0	0.0000096
319.5	0.0000030
320.0	0.0000075
320.5	0.0000047
321.0	0.0000013
321.5	0.0000012
322.0	0.0000004
322.5	-0.0000016
323.0	0.0000021
323.5	0.0000007
324.0	0.0000055
324.5	0.0000087
325.0	0.0000037
325.5	0.0000050
326.0	0.0000038
326.5	0.0000004
327.0	0.0000044
327.5	0.0000045
328.0	-0.0000005
328.5	0.0000073
329.0	0.0000007
329.5	0.0000100
330.0	-0.0000007
330.5	0.0000077
331.0	0.0000071
331.5	0.0000042
332.0	0.0000060
332.5	0.0000086
333.0	0.0000156
333.5	0.0000043
334.0	0.0000096
334.5	0.0000117
335.0	0.0000069
335.5	0.0000081
336.0	0.0000034
336.5	0.0000167
337.0	0.0000054
337.5	0.0000060
338.0	0.0000044
338.5	0.0000150
339.0	-0.0000033
339.5	0.0000130
340.0	0.0000134
340.5	0.0000109
341.0	0.0000034
341.5	0.0000022
342.0	0.0000043
342.5	0.0000130
343.0	0.0000176
343.5	0.0000007
344.0	0.0000091
344.5	0.0000175
345.0	0.0000032
345.5	0.0000026
346.0	0.0000068
346.5	0.0000046
347.0	0.0000120
347.5	0.0000024
348.0	0.0000087
348.5	0.0000095
349.0	0.0000110
349.5	0.0000096
350.0	0.0000066
350.5	0.0000061
351.0	0.0000111
351.5	0.0000035
352.0	0.0000055
352.5	0.0000031
353.0	0.0000016
353.5	0.0000071
354.0	0.0000041
354.5	0.0000064
355.0	0.0000064
355.5	0.0000031
356.0	0.0000026
356.5	0.0000005
357.0	0.0000030
357.5	0.0000058
358.0	0.0000050
358.5	0.0000054
359.0	0.0000047
359.5	0.0000055
360.0	0.0000046
360.5	0.0000020
361.0	0.0000038
361.5	0.0000038
362.0	0.0000020
362.5	0.0000071
363.0	0.0000046
363.5	0.0000056
364.0	0.0000047
364.5	0.0000029
365.0	0.0000050
365.5	0.0000086
366.0	0.0000041
366.5	0.0000034
367.0	0.0000063
367.5	0.0000043
368.0	0.0000049
368.5	0.0000066
369.0	0.0000057
369.5	0.0000035
370.0	0.0000065
370.5	0.0000049
371.0	0.0000073
371.5	0.0000066
372.0	0.0000030
372.5	0.0000066
373.0	0.0000062
373.5	0.0000045
374.0	0.0000053
374.5	0.0000073
375.0	0.0000036
375.5	0.0000033
376.0	0.0000070
376.5	0.0000032
377.0	0.0000035
377.5	0.0000063
378.0	0.0000024
378.5	0.0000045
379.0	0.0000024
379.5	0.0000040
380.0	0.0000049
380.5	0.0000027
381.0	0.0000032
381.5	0.0000042
382.0	0.0000026
382.5	0.0000044
383.0	0.0000011
383.5	0.0000050
384.0	0.0000033
384.5	0.0000008
385.0	0.0000053
385.5	0.0000031
386.0	0.0000034
386.5	0.0000000
387.0	0.0000004
387.5	0.0000056
388.0	0.0000052
388.5	0.0000044
389.0	0.0000050
389.5	0.0000021
390.0	0.0000049
390.5	0.0000046
391.0	0.0000021
391.5	0.0000046
392.0	0.0000046
392.5	0.0000037
393.0	0.0000037
393.5	0.0000055
394.0	0.0000011
394.5	0.0000033
395.0	0.0000054
395.5	0.0000057
396.0	0.0000069
396.5	0.0000052
397.0	0.0000041
397.5	0.0000056
398.0	0.0000051
398.5	0.0000027
399.0	0.0000026
399.5	0.0000012
400.0	0.0000083
400.5	0.0000262
401.0	0.0000183
401.5	0.0000069
402.0	0.0000041
402.5	0.0000098
403.0	0.0000046
403.5	0.0000047
404.0	0.0000045
404.5	0.0000025
405.0	0.0000044
405.5	0.0000022
406.0	0.0000053
406.5	0.0000035
407.0	0.0000016
407.5	0.0000020
408.0	0.0000037
408.5	0.0000015
409.0	0.0000029
409.5	0.0000033
410.0	0.0000028
410.5	0.0000029
411.0	0.0000032
411.5	0.0000031
412.0	0.0000031
412.5	0.0000036
413.0	0.0000025
413.5	0.0000052
414.0	0.0000033
414.5	0.0000046
415.0	0.0000060
415.5	0.0000050
416.0	0.0000037
416.5	0.0000038
417.0	0.0000008
417.5	0.0000026
418.0	0.0000044
418.5	0.0000044
419.0	0.0000054
419.5	0.0000028
420.0	0.0000021
420.5	0.0000028
421.0	0.0000041
421.5	0.0000041
422.0	0.0000036
422.5	0.0000024
423.0	0.0000043
423.5	0.0000011
424.0	0.0000037
424.5	0.0000023
425.0	0.0000029
425.5	0.0000025
426.0	0.0000010
426.5	0.0000007
427.0	0.0000022
427.5	0.0000030
428.0	0.0000042
428.5	0.0000024
429.0	0.0000038
429.5	0.0000014
430.0	0.0000027
430.5	0.0000026
431.0	0.0000027
431.5	0.0000049
432.0	0.0000037
432.5	0.0000012
433.0	0.0000008
433.5	0.0000006
434.0	0.0000033
434.5	-0.0000004
435.0	0.0000027
435.5	0.0000017
436.0	0.0000029
436.5	0.0000020
437.0	0.0000018
437.5	0.0000024
438.0	0.0000029
438.5	0.0000030
439.0	0.0000011
439.5	0.0000030
440.0	0.0000037
440.5	0.0000012
441.0	0.0000027
441.5	0.0000040
442.0	0.0000002
442.5	0.0000009
443.0	0.0000059
443.5	0.0000024
444.0	0.0000008
444.5	0.0000023
445.0	0.0000038
445.5	0.0000011
446.0	0.0000023
446.5	0.0000025
447.0	0.0000007
447.5	0.0000047
448.0	0.0000012
448.5	0.0000012
449.0	0.0000044
449.5	0.0000019
450.0	0.0000014
450.5	0.0000037
451.0	0.0000017
451.5	0.0000025
452.0	0.0000019
452.5	0.0000034
453.0	0.0000005
453.5	0.0000015
454.0	0.0000027
454.5	0.0000027
455.0	0.0000015
455.5	0.0000029
456.0	0.0000043
456.5	0.0000019
457.0	0.0000024
457.5	0.0000013
458.0	0.0000033
458.5	0.0000024
459.0	0.0000024
459.5	0.0000025
460.0	0.0000031
460.5	0.0000026
461.0	0.0000046
461.5	0.0000030
462.0	0.0000031
462.5	0.0000030
463.0	0.0000034
463.5	0.0000008
464.0	0.0000008
464.5	-0.0000004
465.0	0.0000023
465.5	0.0000008
466.0	0.0000009
466.5	0.0000023
467.0	0.0000031
467.5	0.0000028
468.0	0.0000019
468.5	0.0000040
469.0	0.0000008
469.5	0.0000042
470.0	0.0000025
470.5	0.0000040
471.0	0.0000020
471.5	0.0000030
472.0	0.0000016
472.5	0.0000020
473.0	0.0000037
473.5	-0.0000004
474.0	0.0000070
474.5	0.0000026
475.0	0.0000020
475.5	0.0000014
476.0	0.0000036
476.5	0.0000077
477.0	0.0000072
477.5	0.0000068
478.0	0.0000076
478.5	0.0000089
479.0	0.0000111
479.5	0.0000142
480.0	0.0000147
480.5	0.0000157
481.0	0.0000145
481.5	0.0000109
482.0	0.0000071
482.5	0.0000067
483.0	0.0000084
483.5	0.0000038
484.0	0.0000074
484.5	0.0000047
485.0	0.0000038
485.5	0.0000053
486.0	0.0000059
486.5	0.0000078
487.0	0.0000065
487.5	0.0000104
488.0	0.0000083
488.5	0.0000097
489.0	0.0000069
489.5	0.0000058
490.0	0.0000029
490.5	0.0000043
491.0	0.0000032
491.5	0.0000048
492.0	0.0000046
492.5	0.0000025
493.0	0.0000049
493.5	0.0000022
494.0	0.0000035
494.5	0.0000012
495.0	0.0000022
495.5	0.0000029
496.0	0.0000037
496.5	0.0000045
497.0	0.0000020
497.5	0.0000012
498.0	0.0000031
498.5	0.0000013
499.0	0.0000019
499.5	0.0000019
500.0	0.0000022
500.5	0.0000033
501.0	0.0000037
501.5	0.0000019
502.0	0.0000029
502.5	0.0000033
503.0	0.0000051
503.5	0.0000040
504.0	0.0000035
504.5	0.0000048
505.0	0.0000052
505.5	0.0000060
506.0	0.0000046
506.5	0.0000039
507.0	0.0000039
507.5	0.0000025
508.0	0.0000045
508.5	0.0000050
509.0	0.0000061
509.5	0.0000051
510.0	0.0000058
510.5	0.0000047
511.0	0.0000070
511.5	0.0000081
512.0	0.0000056
512.5	0.0000062
513.0	0.0000076
513.5	0.0000067
514.0	0.0000052
514.5	0.0000063
515.0	0.0000051
515.5	0.0000065
516.0	0.0000053
516.5	0.0000058
517.0	0.0000052
517.5	0.0000048
518.0	0.0000055
518.5	0.0000059
519.0	0.0000063
519.5	0.0000052
520.0	0.0000057
520.5	0.0000056
521.0	0.0000080
521.5	0.0000095
522.0	0.0000087
522.5	0.0000116
523.0	0.0000133
523.5	0.0000153
524.0	0.0000167
524.5	0.0000195
525.0	0.0000266
525.5	0.0000303
526.0	0.0000354
526.5	0.0000448
527.0	0.0000527
527.5	0.0000615
528.0	0.0000703
528.5	0.0000774
529.0	0.0000841
529.5	0.0000924
530.0	0.0000998
530.5	0.0001049
531.0	0.0001170
531.5	0.0001245
532.0	0.0001356
532.5	0.0001512
533.0	0.0001681
533.5	0.0001909
534.0	0.0002181
534.5	0.0002557
535.0	0.0003001
535.5	0.0003625
536.0	0.0004399
536.5	0.0005401
537.0	0.0006748
537.5	0.0008534
538.0	0.0010876
538.5	0.0013943
539.0	0.0018090
539.5	0.0023391
540.0	0.0030229
540.5	0.0038911
541.0	0.0049513
541.5	0.0062218
542.0	0.0076971
542.5	0.0094017
543.0	0.0112879
543.5	0.0134281
544.0	0.0159553
544.5	0.0187851
545.0	0.0222163
545.5	0.0264327
546.0	0.0315264
546.5	0.0378756
547.0	0.0456782
547.5	0.0552329
548.0	0.0668001
548.5	0.0803490
549.0	0.0959014
549.5	0.1128039
550.0	0.1302733
550.5	0.1480575
551.0	0.1645689
551.5	0.1797050
552.0	0.1940362
552.5	0.2070838
553.0	0.2201768
553.5	0.2332917
554.0	0.2476006
554.5	0.2632565
555.0	0.2804970
555.5	0.3000142
556.0	0.3211825
556.5	0.3441489
557.0	0.3690880
557.5	0.3942866
558.0	0.4199979
558.5	0.4453562
559.0	0.4697794
559.5	0.4923111
560.0	0.5135487
560.5	0.5330654
561.0	0.5513048
561.5	0.5687630
562.0	0.5856413
562.5	0.6028808
563.0	0.6207701
563.5	0.6398770
564.0	0.6599408
564.5	0.6811247
565.0	0.7036409
565.5	0.7267814
566.0	0.7499762
566.5	0.7732123
567.0	0.7954859
567.5	0.8163814
568.0	0.8354954
568.5	0.8525550
569.0	0.8666524
569.5	0.8794660
570.0	0.8899704
570.5	0.8985432
571.0	0.9065673
571.5	0.9136259
572.0	0.9197362
572.5	0.9262208
573.0	0.9323172
573.5	0.9384664
574.0	0.9449226
574.5	0.9507155
575.0	0.9568740
575.5	0.9626823
576.0	0.9677263
576.5	0.9720484
577.0	0.9753991
577.5	0.9782850
578.0	0.9806454
578.5	0.9818513
579.0	0.9828293
579.5	0.9834068
580.0	0.9832189
580.5	0.9829341
581.0	0.9829951
581.5	0.9828904
582.0	0.9830950
582.5	0.9830694
583.0	0.9832265
583.5	0.9836416
584.0	0.9840992
584.5	0.9846331
585.0	0.9845853
585.5	0.9849726
586.0	0.9850293
586.5	0.9853548
587.0	0.9850319
587.5	0.9851046
588.0	0.9845869
588.5	0.9848601
589.0	0.9847921
589.5	0.9845556
590.0	0.9846016
590.5	0.9848132
591.0	0.9850900
591.5	0.9854741
592.0	0.9860167
592.5	0.9867263
593.0	0.9870828
593.5	0.9876042
594.0	0.9879305
594.5	0.9881576
595.0	0.9881890
595.5	0.9882029
596.0	0.9880717
596.5	0.9876952
597.0	0.9876224
597.5	0.9869723
598.0	0.9867670
598.5	0.9862793
599.0	0.9860859
599.5	0.9856449
600.0	0.9854577
600.5	0.9852728
601.0	0.9853184
601.5	0.9852874
602.0	0.9854307
602.5	0.9858904
603.0	0.9860019
603.5	0.9865413
604.0	0.9866517
604.5	0.9868973
605.0	0.9871093
605.5	0.9873642
606.0	0.9876547
606.5	0.9878534
607.0	0.9879017
607.5	0.9882802
608.0	0.9882274
608.5	0.9881842
609.0	0.9883887
609.5	0.9885352
610.0	0.9885106
610.5	0.9887859
611.0	0.9888212
611.5	0.9889725
612.0	0.9892059
612.5	0.9890460
613.0	0.9890189
613.5	0.9886723
614.0	0.9883668
614.5	0.9880406
615.0	0.9877379
615.5	0.9872165
616.0	0.9870032
616.5	0.9866366
617.0	0.9862889
617.5	0.9854691
618.0	0.9853459
618.5	0.9851662
619.0	0.9848804
619.5	0.9849866
620.0	0.9850402
620.5	0.9852624
621.0	0.9853907
621.5	0.9857663
622.0	0.9863456
622.5	0.9870430
623.0	0.9873894
623.5	0.9880444
624.0	0.9884696
624.5	0.9890085
625.0	0.9896331
625.5	0.9898087
626.0	0.9900999
626.5	0.9903028
627.0	0.9905936
627.5	0.9907520
628.0	0.9910233
628.5	0.9908947
629.0	0.9909484
629.5	0.9908703
630.0	0.9906842
630.5	0.9905864
631.0	0.9903764
631.5	0.9904045
632.0	0.9903152
632.5	0.9900959
633.0	0.9900618
633.5	0.9900063
634.0	0.9901767
634.5	0.9898423
635.0	0.9897346
635.5	0.9896781
636.0	0.9898548
636.5	0.9898306
637.0	0.9893650
637.5	0.9894797
638.0	0.9893122
638.5	0.9894553
639.0	0.9893099
639.5	0.9893744
640.0	0.9896092
640.5	0.9896604
641.0	0.9899053
641.5	0.9897756
642.0	0.9900679
642.5	0.9903433
643.0	0.9908075
643.5	0.9911020
644.0	0.9914973
644.5	0.9917843
645.0	0.9924101
645.5	0.9926164
646.0	0.9929352
646.5	0.9930975
647.0	0.9931893
647.5	0.9935300
648.0	0.9936657
648.5	0.9936870
649.0	0.9935277
649.5	0.9934419
650.0	0.9931597
650.5	0.9929391
651.0	0.9929371
651.5	0.9924298
652.0	0.9923262
652.5	0.9920693
653.0	0.9918287
653.5	0.9917705
654.0	0.9916106
654.5	0.9912893
655.0	0.9912299
655.5	0.9910373
656.0	0.9909569
656.5	0.9910422
657.0	0.9910858
657.5	0.9909395
658.0	0.9910668
658.5	0.9909494
659.0	0.9911505
659.5	0.9911086
660.0	0.9911128
660.5	0.9908277
661.0	0.9907522
661.5	0.9908275
662.0	0.9905730
662.5	0.9904094
663.0	0.9901654
663.5	0.9900513
664.0	0.9896455
664.5	0.9894673
665.0	0.9894124
665.5	0.9893362
666.0	0.9887929
666.5	0.9886496
667.0	0.9886983
667.5	0.9884926
668.0	0.9883807
668.5	0.9880609
669.0	0.9882785
669.5	0.9884504
670.0	0.9885224
670.5	0.9886398
671.0	0.9886608
671.5	0.9889865
672.0	0.9889413
672.5	0.9889583
673.0	0.9895790
673.5	0.9896095
674.0	0.9899698
674.5	0.9901214
675.0	0.9903094
675.5	0.9906539
676.0	0.9905403
676.5	0.9907198
677.0	0.9909855
677.5	0.9910005
678.0	0.9912957
678.5	0.9911636
679.0	0.9913283
679.5	0.9910849
680.0	0.9912774
680.5	0.9914504
681.0	0.9912762
681.5	0.9912129
682.0	0.9910448
682.5	0.9911592
683.0	0.9911227
683.5	0.9911025
684.0	0.9911149
684.5	0.9909718
685.0	0.9909340
685.5	0.9910489
686.0	0.9911988
686.5	0.9911751
687.0	0.9912173
687.5	0.9910425
688.0	0.9911374
688.5	0.9913415
689.0	0.9912118
689.5	0.9914866
690.0	0.9919315
690.5	0.9921730
691.0	0.9915917
691.5	0.9917667
692.0	0.9922730
692.5	0.9921579
693.0	0.9921099
693.5	0.9923903
694.0	0.9924292
694.5	0.9924385
695.0	0.9924966
695.5	0.9924644
696.0	0.9923701
696.5	0.9926610
697.0	0.9923830
697.5	0.9922489
698.0	0.9920865
698.5	0.9921542
699.0	0.9920268
699.5	0.9918854
700.0	0.9919706
700.5	0.9916113
701.0	0.9911987
701.5	0.9911014
702.0	0.9908377
702.5	0.9909675
703.0	0.9907684
703.5	0.9907933
704.0	0.9906692
704.5	0.9907295
705.0	0.9905114
705.5	0.9909976
706.0	0.9910131
706.5	0.9910992
707.0	0.9909142
707.5	0.9911351
708.0	0.9912029
708.5	0.9913977
709.0	0.9915031
709.5	0.9913762
710.0	0.9917216
710.5	0.9915148
711.0	0.9917946
711.5	0.9916165
712.0	0.9920478
712.5	0.9920767
713.0	0.9919819
713.5	0.9923907
714.0	0.9920180
714.5	0.9917800
715.0	0.9920123
715.5	0.9919218
716.0	0.9915557
716.5	0.9915595
717.0	0.9917601
717.5	0.9916898
718.0	0.9914344
718.5	0.9915952
719.0	0.9922408
719.5	0.9924003
720.0	0.9916455
720.5	0.9917383
721.0	0.9919810
721.5	0.9918020
722.0	0.9921324
722.5	0.9921694
723.0	0.9919575
723.5	0.9921680
724.0	0.9920354
724.5	0.9921401
725.0	0.9918974
725.5	0.9920254
726.0	0.9917733
726.5	0.9916111
727.0	0.9917523
727.5	0.9914919
728.0	0.9910762
728.5	0.9910721
729.0	0.9908416
729.5	0.9910403
730.0	0.9909532
730.5	0.9904459
731.0	0.9900315
731.5	0.9901727
732.0	0.9899523
732.5	0.9904912
733.0	0.9898139
733.5	0.9903454
734.0	0.9899946
734.5	0.9900145
735.0	0.9902069
735.5	0.9904468
736.0	0.9906068
736.5	0.9910804
737.0	0.9918992
737.5	0.9918965
738.0	0.9917362
738.5	0.9924846
739.0	0.9925164
739.5	0.9927255
740.0	0.9931344
740.5	0.9931750
741.0	0.9934811
741.5	0.9943954
742.0	0.9940927
742.5	0.9940397
743.0	0.9946321
743.5	0.9944621
744.0	0.9941571
744.5	0.9943569
745.0	0.9944572
745.5	0.9941837
746.0	0.9944078
746.5	0.9942202
747.0	0.9938851
747.5	0.9942916
748.0	0.9941305
748.5	0.9937275
749.0	0.9935443
749.5	0.9937982
750.0	0.9938237
750.5	0.9936639
751.0	0.9932005
751.5	0.9933524
752.0	0.9938938
752.5	0.9931165
753.0	0.9934343
753.5	0.9937631
754.0	0.9938408
754.5	0.9931947
755.0	0.9934681
755.5	0.9931443
756.0	0.9932296
756.5	0.9928385
757.0	0.9931506
757.5	0.9922528
758.0	0.9926736
758.5	0.9920579
759.0	0.9922338
759.5	0.9922560
760.0	0.9914489
760.5	0.9916237
761.0	0.9917066
761.5	0.9913768
762.0	0.9906608
762.5	0.9910814
763.0	0.9903493
763.5	0.9904018
764.0	0.9904014
764.5	0.9904829
765.0	0.9905199
765.5	0.9901037
766.0	0.9898851
766.5	0.9909148
767.0	0.9906529
767.5	0.9902519
768.0	0.9904633
768.5	0.9905633
769.0	0.9913708
769.5	0.9907545
770.0	0.9917071
770.5	0.9916677
771.0	0.9915177
771.5	0.9919997
772.0	0.9923924
772.5	0.9925987
773.0	0.9924340
773.5	0.9926556
774.0	0.9921778
774.5	0.9925483
775.0	0.9931353
775.5	0.9935730
776.0	0.9933186
776.5	0.9931839
777.0	0.9926905
777.5	0.9933556
778.0	0.9933484
778.5	0.9935747
779.0	0.9930325
779.5	0.9930224
780.0	0.9929990
780.5	0.9930294
781.0	0.9933052
781.5	0.9938604
782.0	0.9936457
782.5	0.9931483
783.0	0.9940420
783.5	0.9942339
784.0	0.9943794
784.5	0.9938722
785.0	0.9936925
785.5	0.9942152
786.0	0.9940814
786.5	0.9942180
787.0	0.9949580
787.5	0.9948379
788.0	0.9947237
788.5	0.9945953
789.0	0.9949126
789.5	0.9956405
790.0	0.9955195
790.5	0.9957576
791.0	0.9954276
791.5	0.9952337
792.0	0.9950428
792.5	0.9950264
793.0	0.9946252
793.5	0.9954064
794.0	0.9956389
794.5	0.9946547
795.0	0.9953771
795.5	0.9946674
796.0	0.9953909
796.5	0.9954373
797.0	0.9949530
797.5	0.9946274
798.0	0.9947539
798.5	0.9951265
799.0	0.9949423
799.5	0.9942016
800.0	0.9942810
800.5	0.9941802
801.0	0.9936250
801.5	0.9942379
802.0	0.9931914
802.5	0.9925400
803.0	0.9926917
803.5	0.9919935
804.0	0.9905454
804.5	0.9907961
805.0	0.9910708
805.5	0.9892031
806.0	0.9895996
806.5	0.9881508
807.0	0.9875814
807.5	0.9864820
808.0	0.9857038
808.5	0.9860553
809.0	0.9851854
809.5	0.9853478
810.0	0.9840314
810.5	0.9847073
811.0	0.9836087
811.5	0.9844256
812.0	0.9842319
812.5	0.9839932
813.0	0.9844878
813.5	0.9847644
814.0	0.9854938
814.5	0.9862992
815.0	0.9863427
815.5	0.9880698
816.0	0.9872676
816.5	0.9878433
817.0	0.9886514
817.5	0.9897664
818.0	0.9898639
818.5	0.9910743
819.0	0.9910720
819.5	0.9931273
820.0	0.9923240
820.5	0.9940836
821.0	0.9939242
821.5	0.9939312
822.0	0.9949214
822.5	0.9940402
823.0	0.9941938
823.5	0.9948140
824.0	0.9953206
824.5	0.9941000
825.0	0.9950294
825.5	0.9939050
826.0	0.9943907
826.5	0.9945823
827.0	0.9939687
827.5	0.9948972
828.0	0.9945743
828.5	0.9945370
829.0	0.9938874
829.5	0.9940273
830.0	0.9946906
830.5	0.9947792
831.0	0.9933391
831.5	0.9949413
832.0	0.9942909
832.5	0.9955020
833.0	0.9937710
833.5	0.9942532
834.0	0.9954635
834.5	0.9950411
835.0	0.9948715
835.5	0.9950211
836.0	0.9951905
836.5	0.9935513
837.0	0.9947380
837.5	0.9948526
838.0	0.9943914
838.5	0.9934568
839.0	0.9933622
839.5	0.9941772
840.0	0.9940038
840.5	0.9944875
841.0	0.9946122
841.5	0.9938789
842.0	0.9937299
842.5	0.9943344
843.0	0.9948472
843.5	0.9954193
844.0	0.9953365
844.5	0.9932136
845.0	0.9910253
845.5	0.9870404
846.0	0.9791278
846.5	0.9685741
847.0	0.9510375
847.5	0.9229161
848.0	0.8864895
848.5	0.8385625
849.0	0.7766945
849.5	0.7054901
850.0	0.6220807
850.5	0.5370788
851.0	0.4518412
851.5	0.3724957
852.0	0.3022690
852.5	0.2409006
853.0	0.1906950
853.5	0.1498375
854.0	0.1168658
854.5	0.0915611
855.0	0.0715032
855.5	0.0560063
856.0	0.0440532
856.5	0.0346305
857.0	0.0272760
857.5	0.0217159
858.0	0.0173813
858.5	0.0138505
859.0	0.0112090
859.5	0.0090648
860.0	0.0072752
860.5	0.0059240
861.0	0.0048477
861.5	0.0040320
862.0	0.0033152
862.5	0.0027024
863.0	0.0022891
863.5	0.0019076
864.0	0.0015912
864.5	0.0013477
865.0	0.0011018
865.5	0.0009269
866.0	0.0008259
866.5	0.0006933
867.0	0.0005802
867.5	0.0004992
868.0	0.0004270
868.5	0.0003773
869.0	0.0003044
869.5	0.0002778
870.0	0.0002510
870.5	0.0002010
871.0	0.0001640
871.5	0.0001327
872.0	0.0001446
872.5	0.0001459
873.0	0.0000953
873.5	0.0001178
874.0	0.0001121
874.5	0.0000579
875.0	0.0000552
875.5	0.0000368
876.0	0.0000378
876.5	0.0000574
877.0	0.0000855
877.5	0.0000160
878.0	0.0000183
878.5	0.0000298
879.0	0.0000054
879.5	0.0000359
880.0	0.0000199
880.5	0.0000170
881.0	0.0000379
881.5	-0.0000051
882.0	-0.0000220
882.5	0.0000115
883.0	0.0000108
883.5	0.0000428
884.0	0.0000820
884.5	0.0000730
885.0	0.0000740
885.5	0.0000115
886.0	0.0001191
886.5	-0.0000040
887.0	-0.0000281
887.5	-0.0000062
888.0	0.0000430
888.5	-0.0000253
889.0	0.0000925
889.5	-0.0000313
890.0	0.0000540
890.5	0.0000826
891.0	-0.0000127
891.5	0.0001805
892.0	0.0001576
892.5	-0.0000627
893.0	-0.0000038
893.5	-0.0000388
894.0	-0.0000215
894.5	0.0001211
895.0	-0.0000680
895.5	0.0000376
896.0	0.0000466
896.5	0.0000218
897.0	0.0000421
897.5	-0.0000258
898.0	0.0000565
898.5	0.0000135
899.0	0.0001794
899.5	0.0001323
900.0	0.0000326
900.5	-0.0000005
901.0	-0.0000014
901.5	0.0000040
902.0	-0.0000001
902.5	0.0000026
903.0	0.0000083
903.5	0.0000030
904.0	0.0000103
904.5	0.0000049
905.0	-0.0000001
905.5	-0.0000009
906.0	0.0000074
906.5	0.0000017
907.0	0.0000033
907.5	0.0000084
908.0	0.0000029
908.5	-0.0000080
909.0	0.0000204
909.5	-0.0000118
910.0	0.0000062
910.5	0.0000013
911.0	-0.0000015
911.5	0.0000019
912.0	0.0000004
912.5	0.0000014
913.0	0.0000047
913.5	0.0000171
914.0	-0.0000011
914.5	0.0000057
915.0	-0.0000040
915.5	0.0000007
916.0	0.0000000
916.5	0.0000066
917.0	0.0000057
917.5	0.0000105
918.0	0.0000058
918.5	0.0000024
919.0	0.0000063
919.5	0.0000021
920.0	0.0000045
920.5	0.0000048
921.0	-0.0000054
921.5	0.0000086
922.0	0.0000087
922.5	0.0000091
923.0	0.0000123
923.5	-0.0000014
924.0	-0.0000012
924.5	0.0000051
925.0	0.0000008
925.5	0.0000057
926.0	-0.0000027
926.5	-0.0000015
927.0	-0.0000051
927.5	0.0000052
928.0	0.0000044
928.5	-0.0000019
929.0	0.0000025
929.5	0.0000065
930.0	-0.0000083
930.5	-0.0000077
931.0	-0.0000078
931.5	0.0000033
932.0	-0.0000038
932.5	-0.0000011
933.0	0.0000017
933.5	0.0000120
934.0	0.0000051
934.5	-0.0000007
935.0	0.0000105
935.5	0.0000067
936.0	-0.0000006
936.5	0.0000135
937.0	-0.0000021
937.5	0.0000080
938.0	0.0000043
938.5	0.0000038
939.0	-0.0000060
939.5	0.0000001
940.0	0.0000102
940.5	0.0000103
941.0	0.0000078
941.5	0.0000066
942.0	-0.0000014
942.5	0.0000012
943.0	0.0000000
943.5	0.0000044
944.0	0.0000031
944.5	0.0000016
945.0	-0.0000045
945.5	-0.0000017
946.0	0.0000002
946.5	-0.0000001
947.0	0.0000045
947.5	0.0000116
948.0	0.0000096
948.5	-0.0000059
949.0	0.0000117
949.5	-0.0000038
950.0	0.0000016
950.5	-0.0000068
951.0	-0.0000044
951.5	-0.0000032
952.0	-0.0000020
952.5	0.0000210
953.0	0.0000025
953.5	0.0000103
954.0	0.0000054
954.5	0.0000077
955.0	0.0000035
955.5	0.0000117
956.0	-0.0000006
956.5	-0.0000081
957.0	-0.0000012
957.5	0.0000060
958.0	0.0000001
958.5	-0.0000028
959.0	-0.0000041
959.5	0.0000065
960.0	0.0000046
960.5	0.0000080
961.0	0.0000026
961.5	0.0000020
962.0	0.0000052
962.5	0.0000088
963.0	-0.0000030
963.5	0.0000004
964.0	0.0000061
964.5	0.0000052
965.0	-0.0000041
965.5	-0.0000021
966.0	0.0000017
966.5	-0.0000097
967.0	0.0000077
967.5	0.0000121
968.0	-0.0000010
968.5	-0.0000039
969.0	0.0000036
969.5	-0.0000073
970.0	0.0000111
970.5	0.0000055
971.0	0.0000091
971.5	0.0000049
972.0	-0.0000102
972.5	0.0000002
973.0	0.0000077
973.5	0.0000080
974.0	0.0000090
974.5	0.0000062
975.0	-0.0000074
975.5	-0.0000004
976.0	-0.0000070
976.5	-0.0000113
977.0	-0.0000038
977.5	0.0000113
978.0	0.0000093
978.5	0.0000052
979.0	0.0000089
979.5	-0.0000033
980.0	0.0000085
980.5	-0.0000025
981.0	0.0000074
981.5	0.0000032
982.0	0.0000001
982.5	0.0000157
983.0	0.0000036
983.5	0.0000034
984.0	-0.0000049
984.5	-0.0000004
985.0	-0.0000021
985.5	-0.0000049
986.0	0.0000020
986.5	-0.0000050
987.0	0.0000003
987.5	0.0000085
988.0	-0.0000019
988.5	-0.0000011
989.0	-0.0000023
989.5	-0.0000160
990.0	0.0000069
990.5	0.0000111
991.0	-0.0000013
991.5	0.0000071
992.0	-0.0000057
992.5	0.0000117
993.0	0.0000023
993.5	0.0000085
994.0	0.0000045
994.5	-0.0000067
995.0	-0.0000002
995.5	0.0000088
996.0	0.0000016
996.5	0.0000101
997.0	0.0000041
997.5	0.0000092
998.0	0.0000027
998.5	-0.0000002
999.0	0.0000086
999.5	-0.0000071
1000.0	0.0000081
1000.5	0.0000077
1001.0	0.0000076
1001.5	-0.0000039
1002.0	0.0000054
1002.5	0.0000013
1003.0	-0.0000016
1003.5	0.0000034
1004.0	-0.0000041
1004.5	0.0000103
1005.0	-0.0000118
1005.5	-0.0000048
1006.0	0.0000094
1006.5	-0.0000057
1007.0	-0.0000016
1007.5	-0.0000011
1008.0	0.0000034
1008.5	0.0000100
1009.0	0.0000028
1009.5	-0.0000009
1010.0	-0.0000089
1010.5	-0.0000010
1011.0	0.0000015
1011.5	0.0000012
1012.0	0.0000076
1012.5	0.0000012
1013.0	0.0000081
1013.5	0.0000040
1014.0	-0.0000032
1014.5	0.0000002
1015.0	-0.0000034
1015.5	-0.0000037
1016.0	-0.0000100
1016.5	0.0000080
1017.0	-0.0000071
1017.5	0.0000034
1018.0	0.0000004
1018.5	0.0000126
1019.0	0.0000018
1019.5	0.0000183
1020.0	0.0000162
1020.5	-0.0000036
1021.0	0.0000058
1021.5	0.0000056
1022.0	0.0000016
1022.5	-0.0000063
1023.0	0.0000106
1023.5	-0.0000088
1024.0	0.0000042
1024.5	0.0000104
1025.0	-0.0000110
1025.5	0.0000010
1026.0	0.0000067
1026.5	-0.0000062
1027.0	0.0000024
1027.5	0.0000117
1028.0	-0.0000020
1028.5	0.0000066
1029.0	-0.0000016
1029.5	0.0000032
1030.0	-0.0000042
1030.5	0.0000047
1031.0	0.0000028
1031.5	-0.0000014
1032.0	-0.0000021
1032.5	0.0000016
1033.0	-0.0000082
1033.5	0.0000169
1034.0	-0.0000025
1034.5	0.0000019
1035.0	-0.0000016
1035.5	-0.0000045
1036.0	0.0000007
1036.5	0.0000035
1037.0	0.0000086
1037.5	0.0000028
1038.0	0.0000042
1038.5	0.0000069
1039.0	-0.0000102
1039.5	0.0000016
1040.0	0.0000022
1040.5	0.0000012
1041.0	0.0000093
1041.5	-0.0000032
1042.0	-0.0000067
1042.5	0.0000083
1043.0	0.0000024
1043.5	-0.0000058
1044.0	0.0000066
1044.5	0.0000060
1045.0	0.0000074
1045.5	-0.0000047
1046.0	-0.0000023
1046.5	0.0000102
1047.0	0.0000008
1047.5	-0.0000011
1048.0	0.0000048
1048.5	-0.0000025
1049.0	0.0000073
1049.5	0.0000046
1050.0	0.0000014
1050.5	0.0000081
1051.0	-0.0000048
1051.5	0.0000117
1052.0	0.0000056
1052.5	0.0000027
1053.0	-0.0000091
1053.5	-0.0000001
1054.0	0.0000024
1054.5	-0.0000060
1055.0	0.0000108
1055.5	0.0000105
1056.0	0.0000019
1056.5	-0.0000009
1057.0	-0.0000024
1057.5	-0.0000008
1058.0	-0.0000128
1058.5	0.0000024
1059.0	-0.0000060
1059.5	0.0000090
1060.0	0.0000016
1060.5	-0.0000020
1061.0	-0.0000005
1061.5	-0.0000065
1062.0	-0.0000051
1062.5	0.0000065
1063.0	0.0000025
1063.5	0.0000000
1064.0	0.0000000
1064.5	0.0000074
1065.0	0.0000100
1065.5	-0.0000023
1066.0	-0.0000021
1066.5	0.0000135
1067.0	0.0000014
1067.5	-0.0000074
1068.0	0.0000074
1068.5	0.0000095
1069.0	0.0000083
1069.5	0.0000062
1070.0	0.0000030
1070.5	0.0000047
1071.0	-0.0000007
1071.5	-0.0000065
1072.0	0.0000047
1072.5	0.0000037
1073.0	0.0000030
1073.5	0.0000031
1074.0	0.0000049
1074.5	0.0000071
1075.0	0.0000056
1075.5	-0.0000065
1076.0	0.0000085
1076.5	0.0000079
1077.0	-0.0000052
1077.5	-0.0000045
1078.0	0.0000077
1078.5	0.0000000
1079.0	0.0000125
1079.5	0.0000028
1080.0	0.0000050
1080.5	0.0000077
1081.0	0.0000054
1081.5	0.0000128
1082.0	-0.0000045
1082.5	0.0000072
1083.0	0.0000049
1083.5	-0.0000030
1084.0	-0.0000081
1084.5	-0.0000004
1085.0	0.0000055
1085.5	-0.0000028
1086.0	-0.0000030
1086.5	0.0000032
1087.0	0.0000055
1087.5	-0.0000073
1088.0	-0.0000008
1088.5	0.0000021
1089.0	0.0000016
1089.5	-0.0000016
1090.0	0.0000027
1090.5	0.0000062
1091.0	-0.0000032
1091.5	-0.0000036
1092.0	-0.0000012
1092.5	0.0000049
1093.0	0.0000053
1093.5	0.0000040
1094.0	0.0000015
1094.5	-0.0000036
1095.0	-0.0000022
1095.5	-0.0000005
1096.0	0.0000067
1096.5	-0.0000002
1097.0	0.0000033
1097.5	0.0000118
1098.0	0.0000109
1098.5	0.0000029
1099.0	0.0000059
1099.5	-0.0000071
1100.0	0.0000037
